WAVELENGTH;SOLAR_IRRADIANCE
0.250000;69.300000
0.252500;77.650000
0.255000;86.000000
0.257500;100.060000
0.260000;114.120000
0.262500;137.060000
0.265000;160.000000
0.267500;169.520000
0.270000;179.040000
0.272500;178.020000
0.275000;177.000000
0.277500;193.690000
0.280000;210.380000
0.282500;241.690000
0.285000;273.000000
0.287500;318.420000
0.290000;363.840000
0.292500;434.420000
0.295000;505.000000
0.297500;531.500000
0.300000;558.000000
0.302500;547.500000
0.305000;537.000000
0.307500;559.020000
0.310000;581.030000
0.312500;619.520000
0.315000;658.000000
0.317500;694.390000
0.320000;730.780000
0.322500;774.390000
0.325000;817.990000
0.327500;871.990000
0.330000;925.990000
0.332500;912.040000
0.335000;898.090000
0.337500;920.690000
0.340000;943.290000
0.342500;925.990000
0.345000;908.690000
0.347500;936.090000
0.350000;963.490000
0.352500;994.940000
0.355000;1026.390000
0.357500;980.740000
0.360000;935.090000
0.362500;1036.290000
0.365000;1137.490000
0.367500;1163.740000
0.370000;1189.990000
0.372500;1109.340000
0.375000;1028.690000
0.377500;1088.990000
0.380000;1149.290000
0.382500;1033.690000
0.385000;918.090000
0.387500;1031.890000
0.390000;1145.690000
0.392500;1035.090000
0.395000;924.490000
0.397500;1269.290000
0.400000;1614.090000
0.402500;1631.090000
0.405000;1648.090000
0.407500;1677.190000
0.410000;1706.290000
0.412500;1744.890000
0.415000;1783.490000
0.417500;1750.190000
0.420000;1716.890000
0.422500;1705.190000
0.425000;1693.490000
0.427500;1597.690000
0.430000;1501.890000
0.432500;1630.990000
0.435000;1760.090000
0.437500;1775.240000
0.440000;1790.390000
0.442500;1859.940000
0.445000;1929.490000
0.447500;1993.440000
0.450000;2057.390000
0.452500;2039.230000
0.455000;2021.080000
0.457500;2030.730000
0.460000;2040.380000
0.462500;2026.530000
0.465000;2012.680000
0.467500;1999.530000
0.470000;1986.380000
0.472500;2002.880000
0.475000;2019.380000
0.477500;2038.090000
0.480000;2056.790000
0.482500;1967.740000
0.485000;1878.680000
0.487500;1905.830000
0.490000;1932.980000
0.492500;1953.580000
0.495000;1974.180000
0.497500;1935.680000
0.500000;1897.190000
0.502500;1916.780000
0.505000;1936.380000
0.507500;1937.230000
0.510000;1938.090000
0.512500;1881.440000
0.515000;1824.790000
0.517500;1814.090000
0.520000;1803.390000
0.522500;1832.240000
0.525000;1861.090000
0.527500;1885.930000
0.530000;1910.780000
0.532500;1904.680000
0.535000;1898.580000
0.537500;1875.730000
0.540000;1852.880000
0.542500;1865.640000
0.545000;1878.390000
0.547500;1874.740000
0.550000;1871.090000
0.552500;1872.440000
0.555000;1873.790000
0.557500;1850.390000
0.560000;1826.990000
0.562500;1837.040000
0.565000;1847.090000
0.567500;1841.180000
0.570000;1835.280000
0.572500;1849.480000
0.575000;1863.690000
0.577500;1851.030000
0.580000;1838.380000
0.582500;1840.730000
0.585000;1843.080000
0.587500;1802.830000
0.590000;1762.580000
0.592500;1778.780000
0.595000;1794.990000
0.597500;1777.480000
0.600000;1759.980000
0.602500;1764.730000
0.605000;1769.490000
0.607500;1753.480000
0.610000;1737.480000
0.612500;1713.140000
0.615000;1688.800000
0.617500;1702.880000
0.620000;1716.970000
0.622500;1696.070000
0.625000;1675.170000
0.627500;1672.030000
0.630000;1668.890000
0.632500;1663.560000
0.635000;1658.230000
0.637500;1647.750000
0.640000;1637.270000
0.642500;1630.020000
0.645000;1622.770000
0.647500;1606.060000
0.650000;1589.360000
0.652500;1552.290000
0.655000;1515.220000
0.657500;1528.910000
0.660000;1542.600000
0.662500;1548.900000
0.665000;1555.210000
0.667500;1544.410000
0.670000;1533.620000
0.672500;1525.240000
0.675000;1516.860000
0.677500;1507.920000
0.680000;1498.980000
0.682500;1484.070000
0.685000;1469.170000
0.687500;1464.280000
0.690000;1459.390000
0.692500;1448.730000
0.695000;1438.080000
0.697500;1423.160000
0.700000;1408.240000
0.702500;1407.530000
0.705000;1406.820000
0.707500;1397.820000
0.710000;1388.820000
0.712500;1378.510000
0.715000;1368.210000
0.717500;1352.130000
0.720000;1336.050000
0.722500;1343.880000
0.725000;1351.710000
0.727500;1339.600000
0.730000;1327.500000
0.732500;1320.720000
0.735000;1313.940000
0.737500;1294.940000
0.740000;1275.940000
0.742500;1280.920000
0.745000;1285.900000
0.747500;1278.040000
0.750000;1270.190000
0.752500;1263.680000
0.755000;1257.180000
0.757500;1249.800000
0.760000;1242.410000
0.762500;1231.300000
0.765000;1220.190000
0.767500;1212.140000
0.770000;1204.100000
0.772500;1201.690000
0.775000;1199.290000
0.777500;1194.780000
0.780000;1190.270000
0.782500;1185.470000
0.785000;1180.680000
0.787500;1174.380000
0.790000;1168.090000
0.792500;1156.170000
0.795000;1144.260000
0.797500;1143.460000
0.800000;1142.670000
0.802500;1132.950000
0.805000;1123.230000
0.807500;1116.710000
0.810000;1110.190000
0.812500;1110.890000
0.815000;1111.590000
0.817500;1094.800000
0.820000;1078.010000
0.822500;1077.750000
0.825000;1077.490000
0.827500;1073.890000
0.830000;1070.290000
0.832500;1058.710000
0.835000;1047.130000
0.837500;1045.660000
0.840000;1044.200000
0.842500;1037.030000
0.845000;1029.860000
0.847500;1010.400000
0.850000;990.940000
0.852500;966.910000
0.855000;942.890000
0.857500;972.870000
0.860000;1002.860000
0.862500;978.930000
0.865000;955.000000
0.867500;960.950000
0.870000;966.910000
0.872500;983.310000
0.875000;999.710000
0.877500;991.910000
0.880000;984.110000
0.882500;979.050000
0.885000;973.990000
0.887500;968.790000
0.890000;963.600000
0.892500;958.230000
0.895000;952.870000
0.897500;947.930000
0.900000;942.990000
0.902500;937.990000
0.905000;933.000000
0.907500;928.000000
0.910000;923.000000
0.912500;918.180000
0.915000;913.370000
0.917500;908.740000
0.920000;904.110000
0.922500;899.050000
0.925000;893.990000
0.927500;889.180000
0.930000;884.370000
0.932500;879.740000
0.935000;875.120000
0.937500;870.240000
0.940000;865.360000
0.942500;860.940000
0.945000;856.530000
0.947500;852.020000
0.950000;847.500000
0.952500;843.000000
0.955000;838.500000
0.957500;833.990000
0.960000;829.490000
0.962500;824.980000
0.965000;820.480000
0.967500;815.990000
0.970000;811.500000
0.972500;806.990000
0.975000;802.490000
0.977500;798.170000
0.980000;793.860000
0.982500;789.740000
0.985000;785.630000
0.987500;781.250000
0.990000;776.870000
0.992500;772.920000
0.995000;768.980000
0.997500;764.800000
1.000000;760.630000
1.002500;756.060000
1.005000;751.490000
1.007500;746.990000
1.010000;742.490000
1.012500;738.180000
1.015000;733.880000
1.017500;729.760000
1.020000;725.630000
1.022500;721.240000
1.025000;716.860000
1.027500;712.920000
1.030000;708.990000
1.032500;704.810000
1.035000;700.630000
1.037500;696.250000
1.040000;691.870000
1.042500;687.940000
1.045000;684.010000
1.047500;680.010000
1.050000;676.000000
1.052500;671.800000
1.055000;667.610000
1.057500;663.230000
1.060000;658.860000
1.062500;655.320000
1.065000;651.770000
1.067500;649.070000
1.070000;646.370000
1.072500;643.740000
1.075000;641.110000
1.077500;638.050000
1.080000;634.990000
1.082500;632.180000
1.085000;629.370000
1.087500;626.740000
1.090000;624.120000
1.092500;621.060000
1.095000;618.000000
1.097500;615.180000
1.100000;612.370000
1.102500;609.920000
1.105000;607.480000
1.107500;604.790000
1.110000;602.110000
1.112500;599.240000
1.115000;596.380000
1.117500;593.930000
1.120000;591.480000
1.122500;588.790000
1.125000;586.110000
1.127500;583.250000
1.130000;580.400000
1.132500;577.940000
1.135000;575.480000
1.137500;572.990000
1.140000;570.510000
1.142500;568.000000
1.145000;565.490000
1.147500;562.980000
1.150000;560.470000
1.152500;557.980000
1.155000;555.500000
1.157500;553.010000
1.160000;550.510000
1.162500;548.000000
1.165000;545.490000
1.167500;542.980000
1.170000;540.480000
1.172500;537.980000
1.175000;535.490000
1.177500;533.190000
1.180000;530.900000
1.182500;528.940000
1.185000;526.990000
1.187500;524.800000
1.190000;522.620000
1.192500;520.240000
1.195000;517.870000
1.197500;515.440000
1.200000;513.010000
1.202500;509.590000
1.205000;506.170000
1.207500;502.890000
1.210000;499.620000
1.212500;496.350000
1.215000;493.090000
1.217500;489.810000
1.220000;486.540000
1.222500;483.270000
1.225000;480.010000
1.227500;476.730000
1.230000;473.460000
1.232500;470.190000
1.235000;466.920000
1.237500;463.640000
1.240000;460.370000
1.242500;457.100000
1.245000;453.840000
1.247500;450.570000
1.250000;447.300000
1.252500;444.030000
1.255000;440.760000
1.257500;437.480000
1.260000;434.210000
1.262500;430.940000
1.265000;427.670000
1.267500;424.400000
1.270000;421.130000
1.272500;417.860000
1.275000;414.590000
1.277500;411.320000
1.280000;408.050000
1.282500;404.780000
1.285000;401.510000
1.287500;398.240000
1.290000;394.970000
1.292500;391.700000
1.295000;388.430000
1.297500;392.570000
1.300000;396.710000
1.302500;401.920000
1.305000;407.140000
1.307500;405.320000
1.310000;403.500000
1.312500;401.670000
1.315000;399.840000
1.317500;398.020000
1.320000;396.210000
1.322500;394.370000
1.325000;392.540000
1.327500;390.720000
1.330000;388.900000
1.332500;387.060000
1.335000;385.230000
1.337500;383.420000
1.340000;381.600000
1.342500;379.770000
1.345000;377.950000
1.347500;376.120000
1.350000;374.300000
1.352500;372.480000
1.355000;370.660000
1.357500;368.820000
1.360000;366.990000
1.362500;365.170000
1.365000;363.350000
1.367500;361.520000
1.370000;359.690000
1.372500;357.870000
1.375000;356.050000
1.377500;354.220000
1.380000;352.390000
1.382500;350.570000
1.385000;348.750000
1.387500;346.920000
1.390000;345.100000
1.392500;343.270000
1.395000;341.450000
1.397500;341.840000
1.400000;342.240000
1.402500;342.950000
1.405000;343.660000
1.407500;342.270000
1.410000;340.890000
1.412500;339.490000
1.415000;338.090000
1.417500;336.690000
1.420000;335.300000
1.422500;333.910000
1.425000;332.530000
1.427500;331.130000
1.430000;329.730000
1.432500;328.340000
1.435000;326.960000
1.437500;325.560000
1.440000;324.160000
1.442500;322.770000
1.445000;321.390000
1.447500;319.990000
1.450000;318.590000
1.452500;317.200000
1.455000;315.820000
1.457500;314.420000
1.460000;313.030000
1.462500;311.630000
1.465000;310.240000
1.467500;308.850000
1.470000;307.460000
1.472500;306.060000
1.475000;304.660000
1.477500;303.280000
1.480000;301.900000
1.482500;300.500000
1.485000;299.100000
1.487500;297.710000
1.490000;296.320000
1.492500;294.930000
1.495000;293.540000
1.497500;293.410000
1.500000;293.280000
1.502500;293.350000
1.505000;293.420000
1.507500;292.260000
1.510000;291.100000
1.512500;289.970000
1.515000;288.840000
1.517500;287.690000
1.520000;286.540000
1.522500;285.390000
1.525000;284.250000
1.527500;283.100000
1.530000;281.960000
1.532500;280.810000
1.535000;279.670000
1.537500;278.520000
1.540000;277.380000
1.542500;276.230000
1.545000;275.080000
1.547500;273.940000
1.550000;272.800000
1.552500;271.650000
1.555000;270.510000
1.557500;269.360000
1.560000;268.220000
1.562500;267.070000
1.565000;265.930000
1.567500;264.780000
1.570000;263.640000
1.572500;262.490000
1.575000;261.340000
1.577500;260.200000
1.580000;259.060000
1.582500;257.910000
1.585000;256.770000
1.587500;255.620000
1.590000;254.470000
1.592500;253.330000
1.595000;252.200000
1.597500;251.160000
1.600000;250.130000
1.602500;249.110000
1.605000;248.090000
1.607500;246.970000
1.610000;245.860000
1.612500;244.740000
1.615000;243.610000
1.617500;242.490000
1.620000;241.370000
1.622500;240.240000
1.625000;239.120000
1.627500;238.000000
1.630000;236.890000
1.632500;235.760000
1.635000;234.640000
1.637500;233.510000
1.640000;232.380000
1.642500;231.260000
1.645000;230.130000
1.647500;229.010000
1.650000;227.900000
1.652500;226.770000
1.655000;225.650000
1.657500;224.530000
1.660000;223.420000
1.662500;222.290000
1.665000;221.160000
1.667500;220.040000
1.670000;218.920000
1.672500;217.800000
1.675000;216.680000
1.677500;215.550000
1.680000;214.430000
1.682500;213.300000
1.685000;212.180000
1.687500;211.060000
1.690000;209.940000
1.692500;208.820000
1.695000;207.690000
1.697500;206.990000
1.700000;206.290000
1.702500;205.650000
1.705000;205.020000
1.707500;203.980000
1.710000;202.950000
1.712500;201.900000
1.715000;200.850000
1.717500;199.810000
1.720000;198.780000
1.722500;197.740000
1.725000;196.700000
1.727500;195.650000
1.730000;194.610000
1.732500;193.570000
1.735000;192.540000
1.737500;191.500000
1.740000;190.470000
1.742500;189.420000
1.745000;188.370000
1.747500;187.330000
1.750000;186.300000
1.752500;185.260000
1.755000;184.220000
1.757500;183.180000
1.760000;182.140000
1.762500;181.100000
1.765000;180.060000
1.767500;179.020000
1.770000;177.980000
1.772500;176.930000
1.775000;175.890000
1.777500;174.860000
1.780000;173.830000
1.782500;172.780000
1.785000;171.730000
1.787500;170.700000
1.790000;169.670000
1.792500;168.620000
1.795000;167.570000
1.797500;167.590000
1.800000;167.600000
1.802500;167.760000
1.805000;167.930000
1.807500;167.090000
1.810000;166.260000
1.812500;165.420000
1.815000;164.580000
1.817500;163.750000
1.820000;162.920000
1.822500;162.080000
1.825000;161.250000
1.827500;160.410000
1.830000;159.580000
1.832500;158.740000
1.835000;157.910000
1.837500;157.070000
1.840000;156.240000
1.842500;155.400000
1.845000;154.570000
1.847500;153.730000
1.850000;152.900000
1.852500;152.060000
1.855000;151.230000
1.857500;150.390000
1.860000;149.560000
1.862500;148.720000
1.865000;147.890000
1.867500;147.060000
1.870000;146.230000
1.872500;145.390000
1.875000;144.550000
1.877500;143.710000
1.880000;142.880000
1.882500;142.050000
1.885000;141.220000
1.887500;140.380000
1.890000;139.540000
1.892500;138.700000
1.895000;137.860000
1.897500;137.990000
1.900000;138.110000
1.902500;138.360000
1.905000;138.600000
1.907500;137.940000
1.910000;137.290000
1.912500;136.640000
1.915000;136.000000
1.917500;135.350000
1.920000;134.710000
1.922500;134.050000
1.925000;133.390000
1.927500;132.740000
1.930000;132.090000
1.932500;131.450000
1.935000;130.810000
1.937500;130.150000
1.940000;129.490000
1.942500;128.840000
1.945000;128.200000
1.947500;127.550000
1.950000;126.900000
1.952500;126.250000
1.955000;125.600000
1.957500;124.940000
1.960000;124.290000
1.962500;123.640000
1.965000;123.000000
1.967500;122.350000
1.970000;121.700000
1.972500;121.050000
1.975000;120.400000
1.977500;119.740000
1.980000;119.090000
1.982500;118.450000
1.985000;117.810000
1.987500;117.150000
1.990000;116.500000
1.992500;115.850000
1.995000;115.190000
1.997500;115.250000
2.000000;115.310000
2.002500;115.460000
2.005000;115.620000
2.007500;115.110000
2.010000;114.600000
2.012500;114.090000
2.015000;113.580000
2.017500;113.060000
2.020000;112.540000
2.022500;112.030000
2.025000;111.530000
2.027500;111.010000
2.030000;110.500000
2.032500;109.990000
2.035000;109.470000
2.037500;108.950000
2.040000;108.440000
2.042500;107.930000
2.045000;107.420000
2.047500;106.920000
2.050000;106.420000
2.052500;105.890000
2.055000;105.370000
2.057500;104.850000
2.060000;104.340000
2.062500;103.830000
2.065000;103.330000
2.067500;102.810000
2.070000;102.290000
2.072500;101.790000
2.075000;101.290000
2.077500;100.770000
2.080000;100.250000
2.082500;99.740000
2.085000;99.220000
2.087500;98.710000
2.090000;98.200000
2.092500;97.690000
2.095000;97.180000
2.097500;97.120000
2.100000;97.070000
2.102500;97.090000
2.105000;97.110000
2.107500;96.680000
2.110000;96.260000
2.112500;95.840000
2.115000;95.420000
2.117500;94.990000
2.120000;94.560000
2.122500;94.140000
2.125000;93.720000
2.127500;93.310000
2.130000;92.890000
2.132500;92.460000
2.135000;92.030000
2.137500;91.610000
2.140000;91.190000
2.142500;90.760000
2.145000;90.340000
2.147500;89.920000
2.150000;89.490000
2.152500;89.070000
2.155000;88.660000
2.157500;88.240000
2.160000;87.810000
2.162500;87.390000
2.165000;86.970000
2.167500;86.550000
2.170000;86.120000
2.172500;85.690000
2.175000;85.260000
2.177500;84.850000
2.180000;84.430000
2.182500;84.010000
2.185000;83.590000
2.187500;83.170000
2.190000;82.750000
2.192500;82.320000
2.195000;81.890000
2.197500;81.890000
2.200000;81.890000
2.202500;81.950000
2.205000;82.020000
2.207500;81.680000
2.210000;81.350000
2.212500;81.000000
2.215000;80.650000
2.217500;80.320000
2.220000;79.990000
2.222500;79.640000
2.225000;79.300000
2.227500;78.960000
2.230000;78.610000
2.232500;78.270000
2.235000;77.940000
2.237500;77.600000
2.240000;77.260000
2.242500;76.910000
2.245000;76.570000
2.247500;76.240000
2.250000;75.900000
2.252500;75.560000
2.255000;75.220000
2.257500;74.880000
2.260000;74.540000
2.262500;74.200000
2.265000;73.860000
2.267500;73.520000
2.270000;73.180000
2.272500;72.840000
2.275000;72.500000
2.277500;72.160000
2.280000;71.820000
2.282500;71.480000
2.285000;71.140000
2.287500;70.800000
2.290000;70.470000
2.292500;70.130000
2.295000;69.790000
2.297500;69.760000
2.300000;69.730000
2.302500;69.760000
2.305000;69.800000
2.307500;69.520000
2.310000;69.240000
2.312500;68.960000
2.315000;68.680000
2.317500;68.410000
2.320000;68.140000
2.322500;67.850000
2.325000;67.570000
2.327500;67.290000
2.330000;67.020000
2.332500;66.750000
2.335000;66.480000
2.337500;66.190000
2.340000;65.900000
2.342500;65.630000
2.345000;65.360000
2.347500;65.080000
2.350000;64.800000
2.352500;64.530000
2.355000;64.250000
2.357500;63.970000
2.360000;63.690000
2.362500;63.410000
2.365000;63.140000
2.367500;62.850000
2.370000;62.570000
2.372500;62.300000
2.375000;62.030000
2.377500;61.750000
2.380000;61.470000
2.382500;61.190000
2.385000;60.920000
2.387500;60.640000
2.390000;60.360000
2.392500;60.080000
2.395000;59.810000
2.397500;59.800000
2.400000;59.800000
2.402500;59.820000
2.405000;59.850000
2.407500;59.630000
2.410000;59.400000
2.412500;59.170000
2.415000;58.950000
2.417500;58.730000
2.420000;58.500000
2.422500;58.280000
2.425000;58.060000
2.427500;57.830000
2.430000;57.600000
2.432500;57.370000
2.435000;57.150000
2.437500;56.930000
2.440000;56.700000
2.442500;56.480000
2.445000;56.260000
2.447500;56.030000
2.450000;55.790000
2.452500;55.570000
2.455000;55.360000
2.457500;55.130000
2.460000;54.900000
2.462500;54.660000
2.465000;54.430000
2.467500;54.220000
2.470000;54.000000
2.472500;53.770000
2.475000;53.550000
2.477500;53.320000
2.480000;53.090000
2.482500;52.870000
2.485000;52.650000
2.487500;52.430000
2.490000;52.200000
2.492500;51.970000
2.495000;51.750000
2.497500;51.720000
2.500000;51.680000
2.502500;51.670000
2.505000;51.670000
2.507500;51.480000
2.510000;51.300000
2.512500;51.110000
2.515000;50.920000
2.517500;50.730000
2.520000;50.550000
2.522500;50.370000
2.525000;50.180000
2.527500;49.980000
2.530000;49.790000
2.532500;49.610000
2.535000;49.430000
2.537500;49.230000
2.540000;49.040000
2.542500;48.850000
2.545000;48.670000
2.547500;48.480000
2.550000;48.300000
2.552500;48.120000
2.555000;47.930000
2.557500;47.730000
2.560000;47.540000
2.562500;47.360000
2.565000;47.180000
2.567500;46.980000
2.570000;46.790000
2.572500;46.600000
2.575000;46.420000
2.577500;46.240000
2.580000;46.060000
2.582500;45.870000
2.585000;45.670000
2.587500;45.480000
2.590000;45.300000
2.592500;45.120000
2.595000;44.930000
2.597500;44.870000
2.600000;44.820000
2.602500;44.800000
2.605000;44.790000
2.607500;44.620000
2.610000;44.450000
2.612500;44.290000
2.615000;44.140000
2.617500;43.980000
2.620000;43.830000
2.622500;43.660000
2.625000;43.490000
2.627500;43.340000
2.630000;43.180000
2.632500;43.020000
2.635000;42.860000
2.637500;42.700000
2.640000;42.550000
2.642500;42.380000
2.645000;42.210000
2.647500;42.060000
2.650000;41.900000
2.652500;41.740000
2.655000;41.580000
2.657500;41.420000
2.660000;41.260000
2.662500;41.100000
2.665000;40.940000
2.667500;40.780000
2.670000;40.620000
2.672500;40.460000
2.675000;40.310000
2.677500;40.140000
2.680000;39.970000
2.682500;39.810000
2.685000;39.660000
2.687500;39.500000
2.690000;39.340000
2.692500;39.180000
2.695000;39.030000
2.697500;38.990000
2.700000;38.960000
2.702500;38.940000
2.705000;38.920000
2.707500;38.790000
2.710000;38.660000
2.712500;38.520000
2.715000;38.380000
2.717500;38.250000
2.720000;38.120000
2.722500;37.990000
2.725000;37.860000
2.727500;37.720000
2.730000;37.580000
2.732500;37.440000
2.735000;37.300000
2.737500;37.170000
2.740000;37.050000
2.742500;36.910000
2.745000;36.770000
2.747500;36.640000
2.750000;36.500000
2.752500;36.360000
2.755000;36.230000
2.757500;36.090000
2.760000;35.960000
2.762500;35.820000
2.765000;35.690000
2.767500;35.550000
2.770000;35.420000
2.772500;35.280000
2.775000;35.150000
2.777500;35.010000
2.780000;34.880000
2.782500;34.750000
2.785000;34.610000
2.787500;34.470000
2.790000;34.340000
2.792500;34.200000
2.795000;34.070000
2.797500;34.050000
2.800000;34.030000
2.802500;34.030000
2.805000;34.030000
2.807500;33.910000
2.810000;33.790000
2.812500;33.680000
2.815000;33.570000
2.817500;33.460000
2.820000;33.350000
2.822500;33.230000
2.825000;33.120000
2.827500;33.010000
2.830000;32.900000
2.832500;32.780000
2.835000;32.670000
2.837500;32.550000
2.840000;32.440000
2.842500;32.330000
2.845000;32.230000
2.847500;32.110000
2.850000;32.000000
2.852500;31.890000
2.855000;31.770000
2.857500;31.660000
2.860000;31.550000
2.862500;31.430000
2.865000;31.310000
2.867500;31.200000
2.870000;31.100000
2.872500;30.990000
2.875000;30.870000
2.877500;30.760000
2.880000;30.660000
2.882500;30.540000
2.885000;30.420000
2.887500;30.310000
2.890000;30.200000
2.892500;30.080000
2.895000;29.970000
2.897500;29.930000
2.900000;29.900000
2.902500;29.880000
2.905000;29.870000
2.907500;29.760000
2.910000;29.660000
2.912500;29.560000
2.915000;29.460000
2.917500;29.360000
2.920000;29.270000
2.922500;29.170000
2.925000;29.080000
2.927500;28.980000
2.930000;28.880000
2.932500;28.770000
2.935000;28.670000
2.937500;28.580000
2.940000;28.490000
2.942500;28.390000
2.945000;28.300000
2.947500;28.200000
2.950000;28.100000
2.952500;28.000000
2.955000;27.910000
2.957500;27.810000
2.960000;27.710000
2.962500;27.610000
2.965000;27.520000
2.967500;27.410000
2.970000;27.310000
2.972500;27.210000
2.975000;27.120000
2.977500;27.030000
2.980000;26.930000
2.982500;26.830000
2.985000;26.740000
2.987500;26.640000
2.990000;26.540000
2.992500;26.440000
2.995000;26.350000
2.997500;26.330000
3.000000;26.310000
3.002500;26.290000
3.005000;26.280000
3.007500;26.200000
3.010000;26.120000
3.012500;26.040000
3.015000;25.950000
3.017500;25.870000
3.020000;25.790000
3.022500;25.710000
3.025000;25.640000
3.027500;25.540000
3.030000;25.450000
3.032500;25.370000
3.035000;25.300000
3.037500;25.210000
3.040000;25.120000
3.042500;25.050000
3.045000;24.980000
3.047500;24.890000
3.050000;24.800000
3.052500;24.710000
3.055000;24.630000
3.057500;24.550000
3.060000;24.470000
3.062500;24.390000
3.065000;24.310000
3.067500;24.220000
3.070000;24.140000
3.072500;24.050000
3.075000;23.970000
3.077500;23.890000
3.080000;23.810000
3.082500;23.730000
3.085000;23.660000
3.087500;23.560000
3.090000;23.470000
3.092500;23.390000
3.095000;23.310000
3.097500;23.280000
3.100000;23.260000
3.102500;23.230000
3.105000;23.210000
3.107500;23.130000
3.110000;23.060000
3.112500;22.990000
3.115000;22.920000
3.117500;22.840000
3.120000;22.760000
3.122500;22.690000
3.125000;22.630000
3.127500;22.550000
3.130000;22.470000
3.132500;22.410000
3.135000;22.350000
3.137500;22.270000
3.140000;22.190000
3.142500;22.110000
3.145000;22.040000
3.147500;21.970000
3.150000;21.900000
3.152500;21.830000
3.155000;21.760000
3.157500;21.680000
3.160000;21.600000
3.162500;21.530000
3.165000;21.470000
3.167500;21.390000
3.170000;21.310000
3.172500;21.240000
3.175000;21.180000
3.177500;21.110000
3.180000;21.030000
3.182500;20.960000
3.185000;20.890000
3.187500;20.810000
3.190000;20.730000
3.192500;20.660000
3.195000;20.600000
3.197500;20.570000
3.200000;20.550000
3.202500;20.540000
3.205000;20.530000
3.207500;20.460000
3.210000;20.400000
3.212500;20.340000
3.215000;20.280000
3.217500;20.210000
3.220000;20.140000
3.222500;20.080000
3.225000;20.030000
3.227500;19.960000
3.230000;19.900000
3.232500;19.830000
3.235000;19.770000
3.237500;19.710000
3.240000;19.650000
3.242500;19.590000
3.245000;19.530000
3.247500;19.460000
3.250000;19.390000
3.252500;19.330000
3.255000;19.270000
3.257500;19.210000
3.260000;19.150000
3.262500;19.080000
3.265000;19.020000
3.267500;18.960000
3.270000;18.900000
3.272500;18.840000
3.275000;18.780000
3.277500;18.710000
3.280000;18.640000
3.282500;18.580000
3.285000;18.530000
3.287500;18.460000
3.290000;18.400000
3.292500;18.330000
3.295000;18.270000
3.297500;18.260000
3.300000;18.250000
3.302500;18.240000
3.305000;18.240000
3.307500;18.190000
3.310000;18.140000
3.312500;18.080000
3.315000;18.030000
3.317500;17.980000
3.320000;17.930000
3.322500;17.880000
3.325000;17.830000
3.327500;17.770000
3.330000;17.710000
3.332500;17.660000
3.335000;17.620000
3.337500;17.560000
3.340000;17.500000
3.342500;17.450000
3.345000;17.410000
3.347500;17.350000
3.350000;17.290000
3.352500;17.250000
3.355000;17.210000
3.357500;17.140000
3.360000;17.080000
3.362500;17.040000
3.365000;17.000000
3.367500;16.930000
3.370000;16.870000
3.372500;16.830000
3.375000;16.790000
3.377500;16.720000
3.380000;16.660000
3.382500;16.610000
3.385000;16.570000
3.387500;16.510000
3.390000;16.460000
3.392500;16.410000
3.395000;16.360000
3.397500;16.340000
3.400000;16.330000
3.402500;16.310000
3.405000;16.300000
3.407500;16.260000
3.410000;16.220000
3.412500;16.170000
3.415000;16.130000
3.417500;16.080000
3.420000;16.040000
3.422500;16.000000
3.425000;15.960000
3.427500;15.900000
3.430000;15.840000
3.432500;15.810000
3.435000;15.780000
3.437500;15.730000
3.440000;15.680000
3.442500;15.630000
3.445000;15.590000
3.447500;15.550000
3.450000;15.500000
3.452500;15.450000
3.455000;15.400000
3.457500;15.360000
3.460000;15.320000
3.462500;15.280000
3.465000;15.240000
3.467500;15.180000
3.470000;15.130000
3.472500;15.090000
3.475000;15.050000
3.477500;15.010000
3.480000;14.960000
3.482500;14.910000
3.485000;14.870000
3.487500;14.820000
3.490000;14.780000
3.492500;14.730000
3.495000;14.690000
3.497500;14.660000
3.500000;14.640000
3.502500;14.640000
3.505000;14.630000
3.507500;14.590000
3.510000;14.550000
3.512500;14.500000
3.515000;14.450000
3.517500;14.410000
3.520000;14.380000
3.522500;14.350000
3.525000;14.320000
3.527500;14.260000
3.530000;14.210000
3.532500;14.180000
3.535000;14.150000
3.537500;14.100000
3.540000;14.050000
3.542500;14.010000
3.545000;13.980000
3.547500;13.940000
3.550000;13.910000
3.552500;13.860000
3.555000;13.820000
3.557500;13.780000
3.560000;13.740000
3.562500;13.700000
3.565000;13.670000
3.567500;13.620000
3.570000;13.580000
3.572500;13.540000
3.575000;13.500000
3.577500;13.460000
3.580000;13.430000
3.582500;13.390000
3.585000;13.350000
3.587500;13.300000
3.590000;13.250000
3.592500;13.220000
3.595000;13.180000
3.597500;13.170000
3.600000;13.160000
3.602500;13.140000
3.605000;13.120000
3.607500;13.090000
3.610000;13.060000
3.612500;13.030000
3.615000;13.000000
3.617500;12.960000
3.620000;12.920000
3.622500;12.890000
3.625000;12.850000
3.627500;12.810000
3.630000;12.780000
3.632500;12.740000
3.635000;12.700000
3.637500;12.670000
3.640000;12.650000
3.642500;12.610000
3.645000;12.570000
3.647500;12.530000
3.650000;12.500000
3.652500;12.460000
3.655000;12.430000
3.657500;12.390000
3.660000;12.360000
3.662500;12.320000
3.665000;12.280000
3.667500;12.250000
3.670000;12.220000
3.672500;12.180000
3.675000;12.150000
3.677500;12.110000
3.680000;12.070000
3.682500;12.040000
3.685000;12.010000
3.687500;11.970000
3.690000;11.940000
3.692500;11.900000
3.695000;11.860000
3.697500;11.850000
3.700000;11.850000
3.702500;11.850000
3.705000;11.840000
3.707500;11.810000
3.710000;11.780000
3.712500;11.750000
3.715000;11.720000
3.717500;11.690000
3.720000;11.660000
3.722500;11.630000
3.725000;11.600000
3.727500;11.580000
3.730000;11.550000
3.732500;11.510000
3.735000;11.470000
3.737500;11.450000
3.740000;11.420000
3.742500;11.390000
3.745000;11.360000
3.747500;11.330000
3.750000;11.300000
3.752500;11.270000
3.755000;11.240000
3.757500;11.210000
3.760000;11.180000
3.762500;11.150000
3.765000;11.120000
3.767500;11.090000
3.770000;11.060000
3.772500;11.030000
3.775000;11.000000
3.777500;10.970000
3.780000;10.940000
3.782500;10.910000
3.785000;10.890000
3.787500;10.850000
3.790000;10.820000
3.792500;10.780000
3.795000;10.750000
3.797500;10.730000
3.800000;10.720000
3.802500;10.710000
3.805000;10.700000
3.807500;10.670000
3.810000;10.640000
3.812500;10.620000
3.815000;10.590000
3.817500;10.550000
3.820000;10.520000
3.822500;10.500000
3.825000;10.470000
3.827500;10.440000
3.830000;10.420000
3.832500;10.390000
3.835000;10.370000
3.837500;10.340000
3.840000;10.310000
3.842500;10.280000
3.845000;10.250000
3.847500;10.220000
3.850000;10.200000
3.852500;10.170000
3.855000;10.150000
3.857500;10.120000
3.860000;10.100000
3.862500;10.060000
3.865000;10.030000
3.867500;10.000000
3.870000;9.980000
3.872500;9.950000
3.875000;9.920000
3.877500;9.890000
3.880000;9.860000
3.882500;9.840000
3.885000;9.820000
3.887500;9.790000
3.890000;9.750000
3.892500;9.730000
3.895000;9.710000
3.897500;9.700000
3.900000;9.700000
3.902500;9.700000
3.905000;9.700000
3.907500;9.670000
3.910000;9.630000
3.912500;9.610000
3.915000;9.590000
3.917500;9.580000
3.920000;9.560000
3.922500;9.530000
3.925000;9.500000
3.927500;9.480000
3.930000;9.450000
3.932500;9.430000
3.935000;9.410000
3.937500;9.390000
3.940000;9.360000
3.942500;9.340000
3.945000;9.320000
3.947500;9.300000
3.950000;9.270000
3.952500;9.240000
3.955000;9.220000
3.957500;9.200000
3.960000;9.180000
3.962500;9.150000
3.965000;9.130000
3.967500;9.110000
3.970000;9.080000
3.972500;9.060000
3.975000;9.050000
3.977500;9.020000
3.980000;8.990000
3.982500;8.960000
3.985000;8.940000
3.987500;8.920000
3.990000;8.900000
3.992500;8.870000
3.995000;8.850000
3.997500;8.830000
4.000000;8.810000
